File: static/uploads/Nishant_Bharwani_20250413_121742.csv
Temperature,Frequency,Storage Modulus
30,0.1,365.92
30,0.127,373.97
30,0.16,382.16
30,0.203,390.28
30,0.257,398.25
30,0.326,406.08
30,0.412,413.78
30,0.522,421.38
30,0.661,428.82
30,0.838,436.16
30,1.06,443.29
30,1.34,450.29
30,1.7,457.08
30,2.15,463.71
30,2.73,470.04
30,3.46,476.19
30,4.38,482.12
30,5.54,487.84
30,7.02,493.2
30,8.89,499.05
40,0.1,287.76
40,0.127,292.59
40,0.16,299.71
40,0.203,307.25
40,0.257,314.8
40,0.326,322.2
40,0.412,329.42
40,0.522,336.52
40,0.661,343.53
40,0.838,350.47
40,1.06,357.33
40,1.34,364.08
40,1.7,370.78
40,2.15,377.35
40,2.73,383.75
40,3.46,390.12
40,4.38,396.33
40,5.54,402.12
40,7.02,408.52
40,8.89,414.34
50,0.1,216.11
50,0.127,220.5
50,0.16,227.01
50,0.203,233.72
50,0.257,240.34
50,0.326,246.75
50,0.412,253.06
50,0.522,259.59
50,0.661,265.75
50,0.838,271.86
50,1.06,277.96
50,1.34,284.04
50,1.7,290.07
50,2.15,296.1
50,2.73,301.78
50,3.46,307.81
50,4.38,313.78
50,5.54,319.94
50,7.02,325.89
50,8.89,331.84
60,0.1,161.33
60,0.127,165.66
60,0.16,171.37
60,0.203,177.05
60,0.257,182.63
60,0.326,187.88
60,0.412,193.14
60,0.522,198.31
60,0.661,203.44
60,0.838,208.58
60,1.06,213.72
60,1.34,218.87
60,1.7,224.06
60,2.15,229.26
60,2.73,234.6
60,3.46,239.89
60,4.38,245.17
60,5.54,250.48
60,7.02,255.88
60,8.89,261.08
70,0.1,116.36
70,0.127,120.12
70,0.16,124.97
70,0.203,129.95
70,0.257,134.74
70,0.326,139.37
70,0.412,143.9
70,0.522,148.29
70,0.661,152.64
70,0.838,156.95
70,1.06,161.28
70,1.34,165.58
70,1.7,169.92
70,2.15,174.28
70,2.73,178.65
70,3.46,183.09
70,4.38,187.56
70,5.54,192.13
70,7.02,196.82
70,8.89,201.36
80,0.1,79.973
80,0.127,82.826
80,0.16,86.651
80,0.203,90.632
80,0.257,94.584
80,0.326,98.438
80,0.412,102.25
80,0.522,106
80,0.661,109.7
80,0.838,113.39
80,1.06,117.05
80,1.34,120.72
80,1.7,124.38
80,2.15,128.06
80,2.73,131.74
80,3.46,135.45
80,4.38,139.24
80,5.54,143.1
80,7.02,147.09
80,8.89,150.96
90,0.1,53.114
90,0.127,55.027
90,0.16,57.667
90,0.203,60.511
90,0.257,63.349
90,0.326,66.219
90,0.412,69.073
90,0.522,71.949
90,0.661,74.867
90,0.838,77.816
90,1.06,80.806
90,1.34,83.799
90,1.7,86.835
90,2.15,89.89
90,2.73,92.972
90,3.46,96.065
90,4.38,99.24
90,5.54,102.5
90,7.02,105.9
90,8.89,109.15
100,0.1,34.826
100,0.127,35.975
100,0.16,37.681
100,0.203,39.496
100,0.257,41.38
100,0.326,43.279
100,0.412,45.204
100,0.522,47.165
100,0.661,49.214
100,0.838,51.318
100,1.06,53.478
100,1.34,55.702
100,1.7,57.984
100,2.15,60.335
100,2.73,62.73
100,3.46,65.195
100,4.38,67.741
100,5.54,70.387
100,7.02,73.203
100,8.89,75.893
110,0.1,22.017
110,0.127,22.664
110,0.16,23.767
110,0.203,24.908
110,0.257,26.084
110,0.326,27.268
110,0.412,28.455
110,0.522,29.683
110,0.661,30.968
110,0.838,32.317
110,1.06,33.736
110,1.34,35.222
110,1.7,36.768
110,2.15,38.385
110,2.73,40.078
110,3.46,41.866
110,4.38,43.752
110,5.54,45.764
110,7.02,47.985
110,8.89,50.098
120,0.1,10.251
120,0.127,10.034
120,0.16,10.524
120,0.203,11.18
120,0.257,11.851
120,0.326,12.52
120,0.412,13.187
120,0.522,13.863
120,0.661,14.569
120,0.838,15.311
120,1.06,16.081
120,1.34,16.895
120,1.7,17.752
120,2.15,18.661
120,2.73,19.629
120,3.46,20.67
120,4.38,21.81
120,5.54,23.093
120,7.02,24.59
120,8.89,26.005
120,10,26.937