File: static/uploads/Test_User_2_20250419_154839.csv
Temperature,Frequency,Storage Modulus,Loss Modulus
30,0.1,435.43,56.581
30,0.129,443.97,56.059
30,0.166,452.52,55.37
30,0.214,461,54.727
30,0.276,469.26,53.97
30,0.355,477.51,53.164
30,0.458,485.58,52.199
30,0.59,493.53,51.118
30,0.761,501.29,49.896
30,0.981,508.81,48.606
30,1.26,516.11,47.196
30,1.63,523.14,45.714
30,2.1,529.93,44.165
30,2.7,536.46,42.559
30,3.49,542.69,40.926
30,4.49,548.66,39.299
30,5.79,554.36,37.691
30,7.46,559.88,36.126
30,9.61,565.27,34.691
40,0.1,342.68,51.552
40,0.129,351.14,51.021
40,0.166,359.41,50.846
40,0.214,367.09,50.79
40,0.276,375.08,50.589
40,0.355,382.91,50.355
40,0.458,390.62,50.074
40,0.59,398.31,49.589
40,0.761,405.95,49.031
40,0.981,413.47,48.342
40,1.26,420.89,47.547
40,1.63,428.15,46.631
40,2.1,435.28,45.607
40,2.7,442.23,44.488
40,3.49,449,43.275
40,4.49,455.59,41.985
40,5.79,462.01,40.622
40,7.46,468.27,39.206
40,9.61,474.41,37.731
50,0.1,269.37,45.428
50,0.129,276.78,45.044
50,0.166,283.85,44.923
50,0.214,290.7,45.083
50,0.276,297.55,45.197
50,0.355,304.38,45.324
50,0.458,311.27,45.4
50,0.59,318.12,45.435
50,0.761,325.02,45.37
50,0.981,331.94,45.219
50,1.26,338.82,44.975
50,1.63,345.68,44.622
50,2.1,352.5,44.167
50,2.7,359.25,43.603
50,3.49,365.92,42.93
50,4.49,372.52,42.163
50,5.79,379.03,41.291
50,7.46,385.52,40.328
50,9.61,391.98,39.247
60,0.1,210.65,40.232
60,0.129,216.96,39.712
60,0.166,223.14,39.62
60,0.214,229,39.659
60,0.276,234.91,39.781
60,0.355,240.78,39.924
60,0.458,246.66,40.111
60,0.59,252.6,40.3
60,0.761,258.6,40.462
60,0.981,264.65,40.594
60,1.26,270.74,40.683
60,1.63,276.86,40.703
60,2.1,283.02,40.654
60,2.7,289.19,40.522
60,3.49,295.37,40.306
60,4.49,301.55,39.998
60,5.79,307.74,39.594
60,7.46,313.98,39.082
60,9.61,320.29,38.452
70,0.1,157.5,35.773
70,0.129,163.52,35.325
70,0.166,168.9,35.232
70,0.214,174.26,35.217
70,0.276,179.4,35.242
70,0.355,184.55,35.317
70,0.458,189.69,35.419
70,0.59,194.85,35.565
70,0.761,200.03,35.702
70,0.981,205.25,35.858
70,1.26,210.53,36.017
70,1.63,215.85,36.165
70,2.1,221.22,36.29
70,2.7,226.65,36.38
70,3.49,232.14,36.421
70,4.49,237.7,36.387
70,5.79,243.32,36.311
70,7.46,249.04,36.161
70,9.61,254.91,35.862
80,0.1,110.59,29.934
80,0.129,115.66,29.925
80,0.166,120.38,30.105
80,0.214,124.97,30.317
80,0.276,129.58,30.529
80,0.355,134.11,30.724
80,0.458,138.65,30.877
80,0.59,143.19,31.033
80,0.761,147.79,31.208
80,0.981,152.36,31.364
80,1.26,156.98,31.533
80,1.63,161.63,31.701
80,2.1,166.34,31.879
80,2.7,171.09,32.051
80,3.49,175.93,32.202
80,4.49,180.85,32.332
80,5.79,185.87,32.426
80,7.46,191.06,32.458
80,9.61,196.43,32.391
90,0.1,72.462,22.033
90,0.129,76.294,22.573
90,0.166,79.911,23.13
90,0.214,83.562,23.609
90,0.276,87.188,24.109
90,0.355,90.897,24.524
90,0.458,94.635,24.888
90,0.59,98.405,25.225
90,0.761,102.22,25.516
90,0.981,106.06,25.797
90,1.26,109.94,26.057
90,1.63,113.85,26.303
90,2.1,117.82,26.558
90,2.7,121.84,26.802
90,3.49,125.94,27.047
90,4.49,130.13,27.281
90,5.79,134.47,27.5
90,7.46,138.94,27.679
90,9.61,143.71,27.802
100,0.1,44.465,14.578
100,0.129,46.999,15.137
100,0.166,49.384,15.772
100,0.214,51.898,16.411
100,0.276,54.431,16.99
100,0.355,57.071,17.595
100,0.458,59.81,18.084
100,0.59,62.605,18.587
100,0.761,65.471,19.025
100,0.981,68.4,19.425
100,1.26,71.372,19.785
100,1.63,74.404,20.12
100,2.1,77.478,20.423
100,2.7,80.62,20.718
100,3.49,83.825,20.999
100,4.49,87.13,21.27
100,5.79,90.568,21.525
100,7.46,94.196,21.762
100,9.61,98.124,21.958
110,0.1,25.825,8.5988
110,0.129,27.36,9.1035
110,0.166,28.845,9.6574
110,0.214,30.411,10.25
110,0.276,32.041,10.803
110,0.355,33.729,11.355
110,0.458,35.522,11.908
110,0.59,37.403,12.429
110,0.761,39.356,12.917
110,0.981,41.384,13.388
110,1.26,43.492,13.824
110,1.63,45.679,14.233
110,2.1,47.924,14.601
110,2.7,50.25,14.947
110,3.49,52.65,15.258
110,4.49,55.151,15.543
110,5.79,57.795,15.8
110,7.46,60.629,16.034
110,9.61,63.78,16.192
120,0.1,12.204,4.0544
120,0.129,12.982,4.3582
120,0.166,13.747,4.6504
120,0.214,14.517,5.0196
120,0.276,15.353,5.3361
120,0.355,16.237,5.6735
120,0.458,17.157,6.0159
120,0.59,18.125,6.3651
120,0.761,19.153,6.7056
120,0.981,20.236,7.0356
120,1.26,21.384,7.3648
120,1.63,22.587,7.6828
120,2.1,23.847,7.971
120,2.7,25.188,8.2771
120,3.49,26.61,8.5539
120,4.49,28.143,8.813
120,5.79,29.813,9.0489
120,7.46,31.735,9.2592
120,9.61,33.97,9.4327
120,10.9,34.737,9.2317